##BLOCKS= 1          																															
Plate:	Plate01	1.3	PlateFormat	Spectrum	Fluorescence	TRUE	Raw	FALSE	14			495	560	5			13	12	384	475	Manual	495	Emission Sweep	475	6	Automatic			12	5	None
Wavelength(nm)	Temperature(¡C)	1	2	3	4	5	6	7	8	9	10	11	12	13	14	15	16	17	18	19	20	21	22	23	24						
495	23.7																														
																															
																															
																															
																															
																															
																															
																															
																															
																															
																															
														146395.469	141741.844	133601.75	124542.406	115305.641	107047.086	87979.883	79167.789	64044.094	44146.363	33707.926	36426.852						
														153143.281	142513.687	132310.578	121767.398	138097.109	113422.047	95179.57	97551.398	78189.625	58717.945	50328.906	52916.539						
														166173.406	159487.078	147341.281	139423.531	211285.641	116360.328	108345.57	95219.57	86426.492	79006.797	74358.578	65315.082						
														173413	184319.297	247067.016	143654.891	250453.875	123384.727	131334.047	109317.883	112434.836	110012.453	94010.445	70825.008						
														228323.75	167763.75	215711.641	147475.328	210052.266	130114.016	130182.547	115366.109	113665.805	118808.328	121890.977	87051.523						
																															
500	23.7																														
																															
																															
																															
																															
																															
																															
																															
																															
																															
																															
														350975.375	340822.812	316557.5	288752.219	257327.594	258416.437	210060.281	180377.297	136543.781	80596.406	40557.309	24143.734						
														347510.219	334306.25	314349.437	290952.375	285905.406	263609.563	202792.156	199814	155108.406	103012.781	58863.977	39586.875						
														370260.437	361452.094	335077.719	319002.188	329932.094	269770.906	222759.469	203256.828	161051.297	120418.93	78706.156	65125.336						
														378530.406	369989.406	387334.125	320517.562	346918.75	272617.688	262736.781	209911.125	200029.625	149433.344	104859.68	70732.531						
														387052.5	351577.969	364588.594	313827.25	325788.625	273527.469	265798.938	208229.031	200398.906	162251.391	117452.344	90474.922						
																															
505	23.7																														
																															
																															
																															
																															
																															
																															
																															
																															
																															
																															
														761465.375	752544.062	689076.438	634092	564547.188	562883.5	450335	391379.688	299701.469	169131.187	70144.797	18664.248						
														766073.125	742517.75	679458.875	636057.5	604305.063	562122.75	417935.406	421481.937	320323.25	203535.375	84914.375	32112.061						
														805261.812	780595.187	715592.688	681335.313	647054.125	578356.375	462307.969	425894.25	315723.156	215659.734	110226.719	67238.031						
														777070	779598.625	745780.25	683076.437	663209.625	576318.375	531734.5	418737.5	386436.031	245841.672	142229.781	74343.289						
														773266.125	734757.312	708838.938	651478.438	629521	570682.5	537211.563	401495.25	379704.906	269176.281	136320.391	94345.914						
																															
510	23.7																														
																															
																															
																															
																															
																															
																															
																															
																															
																															
																															
														1599131.75	1549880.25	1448507	1348936.25	1198309.875	1184203.375	981604.562	807806	622203.187	342552.625	136469.766	16764.758						
														1582594.75	1513502	1414151.5	1330611.125	1262605.5	1163494	872877.25	882393.187	662131.687	412362.656	148106.5	31722.373						
														1661864.25	1601215.625	1478974.125	1405457.75	1297840	1207588.25	937893.937	858385.937	636372.875	404939.156	176083.062	67534.422						
														1606538.5	1581418.125	1510815.375	1412108.5	1299796	1176919.25	1085771.25	826229.5	758889.437	446216.906	210861.578	77570.57						
														1551262.625	1490963.375	1442814.5	1324526.25	1259750.875	1158163.25	1075984.75	785446.937	733033.625	476660.5	177066.578	99822.578						
																															
515	23.7																														
																															
																															
																															
																															
																															
																															
																															
																															
																															
																															
														3685355	3570238	3323741.75	2975885.25	2691338.75	2597450.25	2076110.125	1724717.25	1343142.375	728296.438	284012.437	15460.813						
														3681033.25	3523879	3300411	2972524.25	2817297	2601961.25	1854848	1865725.375	1411095.25	872243	289258	29851.877						
														3837559.75	3673517.5	3410657.75	3186699	2902858.75	2648441.5	1940265.625	1805631.25	1351038.625	830528.625	338703.813	60451.344						
														3750033.25	3656275.5	3443659	3195132.5	2913088.75	2597930	2368083.25	1734628.375	1555647.25	877483	378557.281	76579.219						
														3654810.5	3485221.5	3327111.75	2972023	2802657.25	2560500.5	2360889.5	1648782.625	1488434.625	934472.188	268894.188	94081.352						
																															
520	23.7																														
																															
																															
																															
																															
																															
																															
																															
																															
																															
																															
														6709663.5	6384828.5	5864860.5	5644678.5	5021822	4784788.5	3976011.25	3164856.75	2343711.75	1293070	500126.906	14306.039						
														6599651.5	6295501.5	5841603	5606167	5196968.5	4788071.5	3515640.5	3398438	2469238.5	1530242.25	489175.594	26664.254						
														6956140	6506719	5949382.5	5695617	5307502.5	4850994	3669467.5	3305850.75	2396291	1425055.375	571150.625	55420.965						
														6709226.5	6414445	5976081.5	5640802.5	5388606.5	4743333	4372748.5	3122852.75	2748113	1485126.125	621646.75	67281.219						
														6541155.5	6236686	5844867.5	5556271.5	5232273	4741174	4054534	2943195.25	2600939	1583998.625	394284.156	79415.75						
																															
525	23.6																														
																															
																															
																															
																															
																															
																															
																															
																															
																															
																															
														8578362	8118029	7445704	6993968	6271578.5	5962801	4882673	3891807	2843834.25	1558337.25	611455.5	14081.701						
														8405745	7965241.5	7327212.5	6950819.5	6426928	5946822.5	4308308	4202446.5	2979781.5	1816257.75	584137.188	24261.357						
														8634741	8167418	7497613.5	6924771	6529643.5	5979991.5	4499555	4054674.5	2877291.75	1707954.125	701841.25	49113.82						
														8500304	8056637.5	7467858.5	6865570.5	6582823.5	5767939	5284592	3836496	3275584	1765676	743388	60829.652						
														8168246	7724389	7364588.5	6854336.5	6289244.5	5716208.5	5265754.5	3582457	3066293.75	1862182	457933.438	72594.656						
																															
530	23.5																														
																															
																															
																															
																															
																															
																															
																															
																															
																															
																															
														9235641	8693875	7977379	7509479	6645325	6307071.5	5145237.5	4076423.5	3007787.5	1619955.625	639861.437	12142.844						
														9090688	8527509	7811586.5	7440645.5	6832750	6293267	4523286	4421414.5	3138838.75	1887797.125	604071.125	21303.717						
														9437723	8775270	8060734.5	7487105.5	6951798.5	6329735.5	4725074.5	4231732.5	3078443.75	1781180.25	726334.125	44478.113						
														9129362	8642023	8023666.5	7406751.5	7010597.5	6113330	5594195	3993705.5	3439739.5	1830515	757473.75	55654.516						
														8899983	8331917	7796607	7377290	6719306	6093805	5536291	3725408.25	3245505.25	1928690.25	461977.875	66161.563						
																															
535	23.5																														
																															
																															
																															
																															
																															
																															
																															
																															
																															
																															
														9089090	8619903	7852404	7307608.5	6500704.5	6046636.5	4836838.5	3886761.75	2860169	1526862.25	601303.937	11464.476						
														8934356	8432709	7673165.5	7286306	6686276.5	6072090	4310746.5	4236130	3009714.75	1813939.625	571247	20009.336						
														9263603	8675307	7900235	7260917	6750351.5	6120572.5	4489541	4050877.75	2871942.5	1682670.5	686544.75	41095.48						
														8962438	8543177	8037740	7217354.5	6851373.5	5950319	5332999	3814009.75	3303795	1726379.5	732710.187	50595.758						
														8746568	8300686.5	7658636	7191622	6607272	5895374.5	5221948	3580616	3055306.75	1824255.125	428257.312	58948.676						
																															
540	23.5																														
																															
																															
																															
																															
																															
																															
																															
																															
																															
																															
														7827831	7332965.5	6735540	6186770.5	5480362.5	5139484	4162098.75	3261704.25	2367454.5	1256201.125	495149.219	10616.373						
														7716860	7240601	6475105	6206311.5	5624310	5159324.5	3614307	3545589.75	2502783.75	1499422.375	469922.562	16916.49						
														7992546	7429871	6751672	6157219	5735510.5	5159992	3789836.25	3410434.75	2379427	1390677.75	569288.75	35057.488						
														7788222.5	7292998.5	6844270.5	6100813.5	5839329	5005689	4535653.5	3188653	2729395.25	1427016.25	638115	43702.246						
														7606013.5	7060861.5	6549970.5	6152824	5572215	5028973	4476905	3004363	2543647	1516074.125	354788.563	51788.074						
																															
545	23.5																														
																															
																															
																															
																															
																															
																															
																															
																															
																															
																															
														6147586.5	5813921.5	5236717.5	4888083	4298820	3984519.25	3221766.5	2492896	1795787.125	963058.188	380058.531	9139.864						
														6077835	5716890.5	5120085	4867095	4428842.5	3968000	2818694.25	2731990.5	1912687.875	1129564.75	369301.5	14260.542						
														6290844	5878170	5246464	4822989	4548707	3966034	2955796	2616917	1839604.75	1073610.5	433486.094	29379.279						
														6079998	5830769	5333527.5	4781242	4606398	3875657.75	3509455	2479668.5	2120469	1099491.375	492837.25	36539.406						
														5961539.5	5611410	5079447.5	4832310.5	4384910.5	3895880	3454773	2362061.5	1981459.75	1170686.125	270228.187	43949.809						
																															
550	23.5																														
																															
																															
																															
																															
																															
																															
																															
																															
																															
																															
														5092056	4796325.5	4386833.5	4107352.75	3618829.25	3322252.75	2693743	2084236.75	1504905.125	811182.438	319193.531	8355.351						
														5052828	4757563.5	4261663.5	4076353	3718074.25	3271561.25	2355315.5	2257373	1612228.875	957891.375	303383.687	12577.031						
														5194460	4873391.5	4405222.5	4007582.75	3766177.75	3321208.25	2450040.5	2182453	1531329.5	891689.937	358868.5	25151.682						
														5059726	4800805.5	4457772.5	3985402.25	3858745	3204095	2903761	2069707	1762410.125	910063	407251.063	33075.523						
														4928539.5	4643722	4275163.5	4075171.5	3672250.75	3207703	2865713	1942284.75	1632036.25	975638.75	230212.797	38778.094						
																															
555	23.5																														
																															
																															
																															
																															
																															
																															
																															
																															
																															
																															
														4450311.5	4203452.5	3757007.75	3561922	3104022.75	2917364.75	2335413.5	1810969.125	1304486.875	699261.063	273695.062	7665.437						
														4405477	4152343.75	3671349.5	3536198.75	3238846.25	2881006.25	2026460.125	1963900.25	1400772.125	827441.312	264515.969	12412.225						
														4565469	4243095.5	3823775	3458365.25	3273355	2895148.75	2157101	1886313.625	1330138.25	772976.312	314188	23152.045						
														4440656	4205283	3835650.5	3461918.75	3333707.75	2831201.75	2537142.5	1783324.75	1522698.875	787014.625	347663.563	27790.971						
														4305995.5	4052750	3671234.75	3523604.75	3195651.5	2808466.5	2468619.25	1699386.5	1414637.75	845846.188	197220.391	34238.305						
																															
560	23.4																														
																															
																															
																															
																															
																															
																															
																															
																															
																															
																															
														3819180.5	3585450.5	3263331.75	3068661.5	2694507.5	2488285.25	2016349.625	1557947.5	1127763.75	598992.938	240309.719	7025.991						
														3796906.75	3521394.25	3210175.5	3081611.5	2764241.5	2481909.75	1738647.875	1696523.625	1193251.875	720293.813	225425.031	10044.802						
														3939162.5	3640367.5	3310589	3007400	2823593.25	2513332.25	1842907.375	1635976.5	1142467.625	664756.938	268656.719	20212.852						
														3791688.25	3609102	3323466	2975615.25	2866307.75	2427354	2175261.25	1531494.375	1304446.75	682404.125	290664.031	24718.037						
														3697197.25	3441670.25	3203209.5	3036056.75	2728198.75	2424024.25	2125042.75	1446308.5	1224051.5	721335.625	170322.984	29755.078						
																															
Wavelength(nm)		1	2	3	4	5	6	7	8	9	10	11	12	13	14	15	16	17	18	19	20	21	22	23	24						
																															
																															
																															
																															
																															
																															
																															
																															
																															
																															
																															
														 	 	 	 	 	 	 	 	 	 	 	505						
														 	 	 	 	 	 	 	 	 	 	 	540						
														 	 	 	 	 	 	 	 	 	 	 	 						
														 	 	 	 	 	 	 	 	 	 	 	 						
														 	 	 	 	 	 	 	 	 	 	 	 						
~End																															
Instrument type: Instrument serial number:																															
